# df	RamanGain
# [ THz ] [ 1/km/W ]
# PumpWavelength [ nm ] 1460
0.00	0.00000
0.05	0.00129
0.10	0.00259
0.15	0.00388
0.20	0.00517
0.25	0.00646
0.30	0.00776
0.35	0.00905
0.40	0.01034
0.45	0.01163
0.50	0.01293
0.55	0.01422
0.60	0.01551
0.65	0.01680
0.70	0.01810
0.75	0.01942
0.80	0.02130
0.85	0.02317
0.90	0.02517
0.95	0.03032
1.00	0.03547
1.05	0.03856
1.10	0.04132
1.15	0.04409
1.20	0.04684
1.25	0.04959
1.30	0.05234
1.35	0.05533
1.40	0.05851
1.45	0.06108
1.50	0.06250
1.55	0.06393
1.60	0.06537
1.65	0.06697
1.70	0.06858
1.75	0.07025
1.80	0.07193
1.85	0.07360
1.90	0.07460
1.95	0.07530
2.00	0.07601
2.05	0.07693
2.10	0.07806
2.15	0.07907
2.20	0.07988
2.25	0.08069
2.30	0.08197
2.35	0.08427
2.40	0.08609
2.45	0.08679
2.50	0.08748
2.55	0.08839
2.60	0.08988
2.65	0.09137
2.70	0.09299
2.75	0.09491
2.80	0.09661
2.85	0.09776
2.90	0.09892
2.95	0.10008
3.00	0.10123
3.05	0.10225
3.10	0.10290
3.15	0.10355
3.20	0.10414
3.25	0.10453
3.30	0.10492
3.35	0.10535
3.40	0.10595
3.45	0.10656
3.50	0.10721
3.55	0.10786
3.60	0.10851
3.65	0.10871
3.70	0.10890
3.75	0.10909
3.80	0.10990
3.85	0.11081
3.90	0.11120
3.95	0.11144
4.00	0.11169
4.05	0.11169
4.10	0.11158
4.15	0.11147
4.20	0.11122
4.25	0.11086
4.30	0.11050
4.35	0.11041
4.40	0.11064
4.45	0.11063
4.50	0.11026
4.55	0.10989
4.60	0.10977
4.65	0.11013
4.70	0.11049
4.75	0.11082
4.80	0.11110
4.85	0.11164
4.90	0.11267
4.95	0.11371
5.00	0.11457
5.05	0.11512
5.10	0.11568
5.15	0.11666
5.20	0.11831
5.25	0.11953
5.30	0.12002
5.35	0.12051
5.40	0.12110
5.45	0.12190
5.50	0.12271
5.55	0.12343
5.60	0.12394
5.65	0.12445
5.70	0.12497
5.75	0.12549
5.80	0.12601
5.85	0.12654
5.90	0.12707
5.95	0.12767
6.00	0.12883
6.05	0.13000
6.10	0.13095
6.15	0.13191
6.20	0.13287
6.25	0.13363
6.30	0.13439
6.35	0.13515
6.40	0.13673
6.45	0.13834
6.50	0.13918
6.55	0.13994
6.60	0.14070
6.65	0.14143
6.70	0.14215
6.75	0.14287
6.80	0.14444
6.85	0.14605
6.90	0.14715
6.95	0.14823
7.00	0.14931
7.05	0.15036
7.10	0.15141
7.15	0.15246
7.20	0.15412
7.25	0.15580
7.30	0.15721
7.35	0.15858
7.40	0.15994
7.45	0.16120
7.50	0.16246
7.55	0.16384
7.60	0.16580
7.65	0.16771
7.70	0.16892
7.75	0.17014
7.80	0.17138
7.85	0.17275
7.90	0.17412
7.95	0.17557
8.00	0.17730
8.05	0.17903
8.10	0.18080
8.15	0.18274
8.20	0.18465
8.25	0.18610
8.30	0.18756
8.35	0.18901
8.40	0.19051
8.45	0.19200
8.50	0.19350
8.55	0.19600
8.60	0.19851
8.65	0.19990
8.70	0.20119
8.75	0.20249
8.80	0.20428
8.85	0.20607
8.90	0.20799
8.95	0.21061
9.00	0.21302
9.05	0.21473
9.10	0.21644
9.15	0.21810
9.20	0.21969
9.25	0.22127
9.30	0.22358
9.35	0.22632
9.40	0.22836
9.45	0.23000
9.50	0.23163
9.55	0.23337
9.60	0.23518
9.65	0.23699
9.70	0.23954
9.75	0.24248
9.80	0.24483
9.85	0.24687
9.90	0.24892
9.95	0.25085
10.00	0.25275
10.05	0.25464
10.10	0.25665
10.15	0.25868
10.20	0.26072
10.25	0.26415
10.30	0.26738
10.35	0.26936
10.40	0.27133
10.45	0.27334
10.50	0.27551
10.55	0.27769
10.60	0.28033
10.65	0.28389
10.70	0.28676
10.75	0.28888
10.80	0.29100
10.85	0.29328
10.90	0.29573
10.95	0.29818
11.00	0.30143
11.05	0.30492
11.10	0.30727
11.15	0.30949
11.20	0.31170
11.25	0.31372
11.30	0.31574
11.35	0.31812
11.40	0.32096
11.45	0.32318
11.50	0.32492
11.55	0.32667
11.60	0.32860
11.65	0.33061
11.70	0.33271
11.75	0.33512
11.80	0.33738
11.85	0.33915
11.90	0.34093
11.95	0.34274
12.00	0.34460
12.05	0.34646
12.10	0.34883
12.15	0.35139
12.20	0.35312
12.25	0.35452
12.30	0.35593
12.35	0.35745
12.40	0.35902
12.45	0.36059
12.50	0.36304
12.55	0.36550
12.60	0.36694
12.65	0.36838
12.70	0.36977
12.75	0.37081
12.80	0.37185
12.85	0.37331
12.90	0.37539
12.95	0.37683
13.00	0.37764
13.05	0.37846
13.10	0.37919
13.15	0.37988
13.20	0.38056
13.25	0.38098
13.30	0.38132
13.35	0.38122
13.40	0.38112
13.45	0.38067
13.50	0.37957
13.55	0.37848
13.60	0.37743
13.65	0.37640
13.70	0.37536
13.75	0.37334
13.80	0.37127
13.85	0.36953
13.90	0.36779
13.95	0.36646
14.00	0.36550
14.05	0.36454
14.10	0.36430
14.15	0.36448
14.20	0.36491
14.25	0.36540
14.30	0.36593
14.35	0.36660
14.40	0.36727
14.45	0.36778
14.50	0.36793
14.55	0.36730
14.60	0.36581
14.65	0.36432
14.70	0.36108
14.75	0.35746
14.80	0.35385
14.85	0.34466
14.90	0.33516
14.95	0.32641
15.00	0.31766
15.05	0.30856
15.10	0.29924
15.15	0.28992
15.20	0.27514
15.25	0.25922
15.30	0.24877
15.35	0.23833
15.40	0.22869
15.45	0.21987
15.50	0.21105
15.55	0.19870
15.60	0.18504
15.65	0.17842
15.70	0.17193
15.75	0.16631
15.80	0.16167
15.85	0.15702
15.90	0.15199
15.95	0.14667
16.00	0.14294
16.05	0.13966
16.10	0.13668
16.15	0.13469
16.20	0.13270
16.25	0.13023
16.30	0.12699
16.35	0.12376
16.40	0.12030
16.45	0.11679
16.50	0.11406
16.55	0.11134
16.60	0.10896
16.65	0.10809
16.70	0.10722
16.75	0.10602
16.80	0.10460
16.85	0.10457
16.90	0.10468
16.95	0.10502
17.00	0.10616
17.05	0.10731
17.10	0.10725
17.15	0.10688
17.20	0.10744
17.25	0.10800
17.30	0.10907
17.35	0.11085
17.40	0.11264
17.45	0.11619
17.50	0.11910
17.55	0.12031
17.60	0.12153
17.65	0.12391
17.70	0.12686
17.75	0.12879
17.80	0.12754
17.85	0.12815
17.90	0.13024
17.95	0.13232
18.00	0.13071
18.05	0.12876
18.10	0.12683
18.15	0.12495
18.20	0.12172
18.25	0.11806
18.30	0.11453
18.35	0.11205
18.40	0.10957
18.45	0.10244
18.50	0.09295
18.55	0.08974
18.60	0.08663
18.65	0.08337
18.70	0.07986
18.75	0.07635
18.80	0.07683
18.85	0.07755
18.90	0.07744
18.95	0.07733
19.00	0.07773
19.05	0.07838
19.10	0.07795
19.15	0.07419
19.20	0.07044
19.25	0.06626
19.30	0.06209
19.35	0.06067
19.40	0.05926
19.45	0.05749
19.50	0.05548
19.55	0.05345
19.60	0.04901
19.65	0.04660
19.70	0.04935
19.75	0.05211
19.80	0.05347
19.85	0.05397
19.90	0.05447
19.95	0.05265
20.00	0.05071
20.05	0.04874
20.10	0.04676
20.15	0.04634
20.20	0.04817
20.25	0.04999
20.30	0.04880
20.35	0.04649
20.40	0.04625
20.45	0.04624
20.50	0.04614
20.55	0.04588
20.60	0.04563
20.65	0.04637
20.70	0.04761
20.75	0.04634
20.80	0.04465
20.85	0.04342
20.90	0.04315
20.95	0.04288
21.00	0.04240
21.05	0.04184
21.10	0.04108
21.15	0.04031
21.20	0.04078
21.25	0.04178
21.30	0.04245
21.35	0.04148
21.40	0.04134
21.45	0.04212
21.50	0.04290
21.55	0.04262
21.60	0.04229
21.65	0.04234
21.70	0.04289
21.75	0.04262
21.80	0.04194
21.85	0.04131
21.90	0.04091
21.95	0.04051
22.00	0.03908
22.05	0.03704
22.10	0.03750
22.15	0.03796
22.20	0.03760
22.25	0.03672
22.30	0.03606
22.35	0.03599
22.40	0.03593
22.45	0.03740
22.50	0.03889
22.55	0.03983
22.60	0.04074
22.65	0.04131
22.70	0.04188
22.75	0.04216
22.80	0.04238
22.85	0.04340
22.90	0.04442
22.95	0.04524
23.00	0.04601
23.05	0.04738
23.10	0.04953
23.15	0.05140
23.20	0.05319
23.25	0.05500
23.30	0.05684
23.35	0.05868
23.40	0.06025
23.45	0.06211
23.50	0.06449
23.55	0.06687
23.60	0.06860
23.65	0.07026
23.70	0.07211
23.75	0.07423
23.80	0.07548
23.85	0.07658
23.90	0.07742
23.95	0.07803
24.00	0.07839
24.05	0.07688
24.10	0.07537
24.15	0.07301
24.20	0.07058
24.25	0.06900
24.30	0.06741
24.35	0.06639
24.40	0.06553
24.45	0.06470
24.50	0.06390
24.55	0.06327
24.60	0.06268
24.65	0.06260
24.70	0.06331
24.75	0.06280
24.80	0.06153
24.85	0.06035
24.90	0.06019
24.95	0.06002
25.00	0.05902
25.05	0.05747
25.10	0.05580
25.15	0.05188
25.20	0.04795
25.25	0.04402
25.30	0.04002
25.35	0.03567
25.40	0.03132
25.45	0.02867
25.50	0.02647
25.55	0.02464
25.60	0.02337
25.65	0.02228
25.70	0.02370
25.75	0.02374
25.80	0.02233
25.85	0.02120
25.90	0.02169
25.95	0.02218
26.00	0.01831
26.05	0.01414
26.10	0.01237
26.15	0.01164
26.20	0.00780
26.25	0.00396
26.30	0.00300
26.35	0.00341
26.40	0.00363
26.45	0.00363
26.50	0.00390
26.55	0.00635
26.60	0.00881
26.65	0.00000
26.70	0.00000
26.75	0.00000
26.80	0.00000
26.85	0.00000
26.90	0.00000
26.95	0.00000
27.00	0.00000
